IV measurement
:Program Version
13.8.2003 Moll, 4.2008 Fahrer, 6.2011 Gabrysch
:Program Library
CVIV.llb
:start
28/05/2019 14:34:43
:stop
28/05/2019 14:38:25
:elapsed [s]
221.4
:gpib bus delay [ms]
50
:device
HPK-Type-4-LG1-SE5-W10
:tester
asoaresc
:environment
Probe Station (28-2-019)
:comment
<not set>
:annealing time [min]
<not set>
:material
p FZ
:temperature [C]
20.00
:ToolID
1102
:GuardRingConnection
1
:Region
0
:Fluence
0.00
:Particle
p KiT
:Resistivity[ohm cm]
0.0
:AnnealingHistory[C,min]

:Instruments
V source and I meter: Keithley 2410
- integration time [ms]: 60.0
- internal averaging: 3
- compliance [A or V]: 1.000E-6
:ramp up step [V], delay [s], down step [V], delay[s]
2.0, 1.0, 20.0, 0.5
:set voltage start [V], voltage stop [V], number of steps
-0.0, -134.0, 134
:measured voltage start [V], voltage stop [V], number of steps
-0.0, -134.0, 135
:step mode
linear
:legend
bias [V]	Current [A]
BEGIN
-0.000000E+0	-1.675181E-10
-1.000000E+0	-1.985275E-11
-2.000000E+0	-1.817996E-11
-3.000000E+0	-3.224320E-11
-4.000000E+0	-4.341335E-11
-5.000000E+0	-4.733024E-11
-6.000000E+0	-5.092716E-11
-7.000000E+0	-5.191906E-11
-8.000000E+0	-6.116974E-11
-9.000000E+0	-5.129285E-11
-1.000000E+1	-5.981232E-11
-1.100000E+1	-5.992225E-11
-1.200000E+1	-7.500030E-11
-1.300000E+1	-8.218938E-11
-1.400000E+1	-7.809890E-11
-1.500000E+1	-9.618007E-11
-1.600000E+1	-9.718566E-11
-1.700000E+1	-1.069027E-10
-1.800000E+1	-1.055773E-10
-1.900000E+1	-1.175705E-10
-2.000000E+1	-1.159068E-10
-2.100000E+1	-1.341434E-10
-2.200000E+1	-1.066421E-10
-2.300000E+1	-1.418951E-10
-2.400000E+1	-1.484860E-10
-2.500000E+1	-1.492035E-10
-2.600000E+1	-1.538701E-10
-2.700000E+1	-1.623166E-10
-2.800000E+1	-1.771713E-10
-2.900000E+1	-1.839679E-10
-3.000000E+1	-1.952483E-10
-3.100000E+1	-1.934429E-10
-3.200000E+1	-2.119312E-10
-3.300000E+1	-2.077628E-10
-3.400000E+1	-2.189838E-10
-3.500000E+1	-2.303053E-10
-3.600000E+1	-2.366449E-10
-3.700000E+1	-2.405071E-10
-3.800000E+1	-2.493193E-10
-3.900000E+1	-2.548772E-10
-4.000000E+1	-2.698644E-10
-4.100000E+1	-2.624645E-10
-4.200000E+1	-2.755001E-10
-4.300000E+1	-2.856972E-10
-4.400000E+1	-2.856653E-10
-4.500000E+1	-2.806924E-10
-4.600000E+1	-2.851625E-10
-4.700000E+1	-2.751664E-10
-4.800000E+1	-2.943038E-10
-4.900000E+1	-3.010638E-10
-5.000000E+1	-2.890932E-10
-5.100000E+1	-2.845911E-10
-5.200000E+1	-2.963834E-10
-5.300000E+1	-2.980792E-10
-5.400000E+1	-2.986276E-10
-5.500000E+1	-3.025264E-10
-5.600000E+1	-3.009495E-10
-5.700000E+1	-3.009586E-10
-5.800000E+1	-3.026087E-10
-5.900000E+1	-2.877495E-10
-6.000000E+1	-2.889151E-10
-6.100000E+1	-2.960178E-10
-6.200000E+1	-3.042771E-10
-6.300000E+1	-3.066538E-10
-6.400000E+1	-3.081849E-10
-6.500000E+1	-3.139394E-10
-6.600000E+1	-3.132858E-10
-6.700000E+1	-3.000034E-10
-6.800000E+1	-3.018409E-10
-6.900000E+1	-3.090534E-10
-7.000000E+1	-3.046610E-10
-7.100000E+1	-2.962235E-10
-7.200000E+1	-2.815562E-10
-7.300000E+1	-2.776483E-10
-7.400000E+1	-2.680910E-10
-7.500000E+1	-2.688543E-10
-7.600000E+1	-2.587623E-10
-7.700000E+1	-2.664684E-10
-7.800000E+1	-2.647087E-10
-7.900000E+1	-2.594707E-10
-8.000000E+1	-2.553708E-10
-8.100000E+1	-2.671814E-10
-8.200000E+1	-2.742476E-10
-8.300000E+1	-2.734661E-10
-8.400000E+1	-2.589999E-10
-8.500000E+1	-2.680681E-10
-8.600000E+1	-2.721315E-10
-8.700000E+1	-2.720583E-10
-8.800000E+1	-2.790103E-10
-8.900000E+1	-2.668798E-10
-9.000000E+1	-2.637717E-10
-9.100000E+1	-2.780642E-10
-9.200000E+1	-2.834667E-10
-9.300000E+1	-2.650881E-10
-9.400000E+1	-2.757834E-10
-9.500000E+1	-2.781236E-10
-9.600000E+1	-2.778402E-10
-9.700000E+1	-2.873152E-10
-9.800000E+1	-2.850892E-10
-9.900000E+1	-2.976723E-10
-1.000000E+2	-3.043455E-10
-1.010000E+2	-3.045237E-10
-1.020000E+2	-3.040621E-10
-1.030000E+2	-3.091035E-10
-1.040000E+2	-3.026268E-10
-1.050000E+2	-3.155481E-10
-1.060000E+2	-3.164120E-10
-1.070000E+2	-3.151322E-10
-1.080000E+2	-3.205028E-10
-1.090000E+2	-3.263257E-10
-1.100000E+2	-3.258870E-10
-1.110000E+2	-3.443661E-10
-1.120000E+2	-3.415415E-10
-1.130000E+2	-3.629596E-10
-1.140000E+2	-3.719502E-10
-1.150000E+2	-3.658072E-10
-1.160000E+2	-3.754467E-10
-1.170000E+2	-3.838476E-10
-1.180000E+2	-3.916268E-10
-1.190000E+2	-3.938345E-10
-1.200000E+2	-3.916497E-10
-1.210000E+2	-4.259480E-10
-1.220000E+2	-4.221223E-10
-1.230000E+2	-4.399343E-10
-1.240000E+2	-4.489842E-10
-1.250000E+2	-4.719746E-10
-1.260000E+2	-4.832961E-10
-1.270000E+2	-4.965875E-10
-1.280000E+2	-5.040560E-10
-1.290000E+2	-5.256524E-10
-1.300000E+2	-5.447898E-10
-1.310000E+2	-5.557639E-10
-1.320000E+2	-5.830920E-10
-1.330000E+2	-6.115260E-10
-1.340000E+2	-6.318975E-10
END
