IV measurement
:Program Version
13.8.2003 Moll, 4.2008 Fahrer, 6.2011 Gabrysch
:Program Library
CVIV.llb
:start
28/05/2019 14:39:04
:stop
28/05/2019 14:43:12
:elapsed [s]
247.5
:gpib bus delay [ms]
50
:device
HPK-Type-4-LG1-SE5-W10
:tester
asoaresc
:environment
Probe Station (28-2-019)
:comment
<not set>
:annealing time [min]
<not set>
:material
p FZ
:temperature [C]
20.00
:ToolID
1102
:GuardRingConnection
1
:Region
0
:Fluence
0.00
:Particle
p KiT
:Resistivity[ohm cm]
0.0
:AnnealingHistory[C,min]

:Instruments
V source and I meter: Keithley 2410
- integration time [ms]: 60.0
- internal averaging: 3
- compliance [A or V]: 1.000E-6
:ramp up step [V], delay [s], down step [V], delay[s]
2.0, 1.0, 20.0, 0.5
:set voltage start [V], voltage stop [V], number of steps
-0.0, -150.0, 150
:measured voltage start [V], voltage stop [V], number of steps
-0.0, -150.0, 151
:step mode
linear
:legend
bias [V]	Current [A]
BEGIN
-0.000000E+0	-1.604059E-10
-1.000000E+0	-3.678180E-11
-2.000000E+0	-2.357783E-11
-3.000000E+0	-2.741702E-11
-4.000000E+0	-2.770492E-11
-5.000000E+0	-3.153952E-11
-6.000000E+0	-3.647102E-11
-7.000000E+0	-3.363278E-11
-8.000000E+0	-4.535133E-11
-9.000000E+0	-4.821714E-11
-1.000000E+1	-6.672757E-11
-1.100000E+1	-6.426850E-11
-1.200000E+1	-6.425484E-11
-1.300000E+1	-7.754603E-11
-1.400000E+1	-8.529298E-11
-1.500000E+1	-7.952042E-11
-1.600000E+1	-8.616147E-11
-1.700000E+1	-9.319101E-11
-1.800000E+1	-1.039774E-10
-1.900000E+1	-1.065416E-10
-2.000000E+1	-1.110848E-10
-2.100000E+1	-1.260988E-10
-2.200000E+1	-1.259209E-10
-2.300000E+1	-1.370320E-10
-2.400000E+1	-1.403230E-10
-2.500000E+1	-1.429922E-10
-2.600000E+1	-1.493131E-10
-2.700000E+1	-1.485821E-10
-2.800000E+1	-1.624170E-10
-2.900000E+1	-1.794655E-10
-3.000000E+1	-1.890365E-10
-3.100000E+1	-1.849869E-10
-3.200000E+1	-1.879853E-10
-3.300000E+1	-2.018389E-10
-3.400000E+1	-2.054086E-10
-3.500000E+1	-2.059068E-10
-3.600000E+1	-2.195228E-10
-3.700000E+1	-2.210813E-10
-3.800000E+1	-2.323389E-10
-3.900000E+1	-2.268724E-10
-4.000000E+1	-2.479568E-10
-4.100000E+1	-2.566777E-10
-4.200000E+1	-2.728852E-10
-4.300000E+1	-2.692150E-10
-4.400000E+1	-2.765051E-10
-4.500000E+1	-2.794486E-10
-4.600000E+1	-2.859848E-10
-4.700000E+1	-2.809707E-10
-4.800000E+1	-2.892436E-10
-4.900000E+1	-3.511531E-10
-5.000000E+1	-3.064475E-10
-5.100000E+1	-2.763131E-10
-5.200000E+1	-2.973930E-10
-5.300000E+1	-3.016621E-10
-5.400000E+1	-3.033120E-10
-5.500000E+1	-2.946644E-10
-5.600000E+1	-3.017991E-10
-5.700000E+1	-3.062600E-10
-5.800000E+1	-3.083489E-10
-5.900000E+1	-3.013376E-10
-6.000000E+1	-3.021009E-10
-6.100000E+1	-2.999573E-10
-6.200000E+1	-2.998658E-10
-6.300000E+1	-2.912136E-10
-6.400000E+1	-2.949067E-10
-6.500000E+1	-3.031978E-10
-6.600000E+1	-3.011685E-10
-6.700000E+1	-3.081616E-10
-6.800000E+1	-3.098619E-10
-6.900000E+1	-3.226460E-10
-7.000000E+1	-3.091397E-10
-7.100000E+1	-3.072931E-10
-7.200000E+1	-3.112879E-10
-7.300000E+1	-2.966526E-10
-7.400000E+1	-2.831464E-10
-7.500000E+1	-2.800794E-10
-7.600000E+1	-2.706182E-10
-7.700000E+1	-2.599731E-10
-7.800000E+1	-2.508958E-10
-7.900000E+1	-2.578889E-10
-8.000000E+1	-2.670851E-10
-8.100000E+1	-2.627658E-10
-8.200000E+1	-2.645986E-10
-8.300000E+1	-2.635657E-10
-8.400000E+1	-2.670668E-10
-8.500000E+1	-2.740690E-10
-8.600000E+1	-2.701108E-10
-8.700000E+1	-2.685157E-10
-8.800000E+1	-2.600371E-10
-8.900000E+1	-2.716740E-10
-9.000000E+1	-2.687030E-10
-9.100000E+1	-2.778352E-10
-9.200000E+1	-2.745581E-10
-9.300000E+1	-2.984032E-10
-9.400000E+1	-2.636525E-10
-9.500000E+1	-2.881283E-10
-9.600000E+1	-2.944998E-10
-9.700000E+1	-2.921733E-10
-9.800000E+1	-2.848740E-10
-9.900000E+1	-2.893304E-10
-1.000000E+2	-3.078370E-10
-1.010000E+2	-2.974936E-10
-1.020000E+2	-2.899017E-10
-1.030000E+2	-3.124716E-10
-1.040000E+2	-2.843758E-10
-1.050000E+2	-3.177324E-10
-1.060000E+2	-3.091899E-10
-1.070000E+2	-2.927127E-10
-1.080000E+2	-3.381541E-10
-1.090000E+2	-3.331173E-10
-1.100000E+2	-3.288163E-10
-1.110000E+2	-3.321209E-10
-1.120000E+2	-3.394019E-10
-1.130000E+2	-3.411067E-10
-1.140000E+2	-3.422540E-10
-1.150000E+2	-3.679959E-10
-1.160000E+2	-3.565738E-10
-1.170000E+2	-3.647599E-10
-1.180000E+2	-3.728499E-10
-1.190000E+2	-3.812143E-10
-1.200000E+2	-3.823112E-10
-1.210000E+2	-3.873434E-10
-1.220000E+2	-4.109463E-10
-1.230000E+2	-4.164631E-10
-1.240000E+2	-4.383474E-10
-1.250000E+2	-4.389600E-10
-1.260000E+2	-4.788800E-10
-1.270000E+2	-4.835969E-10
-1.280000E+2	-4.851097E-10
-1.290000E+2	-4.844928E-10
-1.300000E+2	-5.084246E-10
-1.310000E+2	-5.386275E-10
-1.320000E+2	-5.281791E-10
-1.330000E+2	-5.362096E-10
-1.340000E+2	-5.682956E-10
-1.350000E+2	-5.945037E-10
-1.360000E+2	-6.084808E-10
-1.370000E+2	-6.910817E-10
-1.380000E+2	-6.752855E-10
-1.390000E+2	-7.009452E-10
-1.400000E+2	-6.851260E-10
-1.410000E+2	-7.781023E-10
-1.420000E+2	-7.638007E-10
-1.430000E+2	-7.907403E-10
-1.440000E+2	-8.069796E-10
-1.450000E+2	-8.481888E-10
-1.460000E+2	-8.636556E-10
-1.470000E+2	-8.796395E-10
-1.480000E+2	-9.107199E-10
-1.490000E+2	-9.552107E-10
-1.500000E+2	-9.878953E-10
END
