IV measurement
:Program Version
13.8.2003 Moll, 4.2008 Fahrer, 6.2011 Gabrysch
:Program Library
CVIV.llb
:start
28/05/2019 14:30:31
:stop
28/05/2019 14:33:56
:elapsed [s]
204.9
:gpib bus delay [ms]
50
:device
HPK-Type-4-LG1-SE5-W10
:tester
asoaresc
:environment
Probe Station (28-2-019)
:comment
<not set>
:annealing time [min]
<not set>
:material
p FZ
:temperature [C]
20.00
:ToolID
1102
:GuardRingConnection
1
:Region
0
:Fluence
0.00
:Particle
p KiT
:Resistivity[ohm cm]
0.0
:AnnealingHistory[C,min]

:Instruments
V source and I meter: Keithley 2410
- integration time [ms]: 60.0
- internal averaging: 3
- compliance [A or V]: 1.000E-6
:ramp up step [V], delay [s], down step [V], delay[s]
2.0, 1.0, 20.0, 0.5
:set voltage start [V], voltage stop [V], number of steps
-0.0, -124.0, 124
:measured voltage start [V], voltage stop [V], number of steps
-0.0, -124.0, 125
:step mode
linear
:legend
bias [V]	Current [A]
BEGIN
-0.000000E+0	-1.539982E-10
-1.000000E+0	-2.503083E-11
-2.000000E+0	-2.811591E-11
-3.000000E+0	-2.810675E-11
-4.000000E+0	-3.605023E-11
-5.000000E+0	-3.325767E-11
-6.000000E+0	-3.927237E-11
-7.000000E+0	-5.313464E-11
-8.000000E+0	-6.255906E-11
-9.000000E+0	-6.511424E-11
-1.000000E+1	-6.291594E-11
-1.100000E+1	-6.601453E-11
-1.200000E+1	-7.211633E-11
-1.300000E+1	-7.642605E-11
-1.400000E+1	-9.503279E-11
-1.500000E+1	-1.016327E-10
-1.600000E+1	-1.113591E-10
-1.700000E+1	-1.069441E-10
-1.800000E+1	-1.188917E-10
-1.900000E+1	-1.350938E-10
-2.000000E+1	-1.339377E-10
-2.100000E+1	-1.414975E-10
-2.200000E+1	-1.479468E-10
-2.300000E+1	-1.589622E-10
-2.400000E+1	-1.639945E-10
-2.500000E+1	-1.753295E-10
-2.600000E+1	-1.808006E-10
-2.700000E+1	-2.108575E-10
-2.800000E+1	-1.994947E-10
-2.900000E+1	-2.366270E-10
-3.000000E+1	-2.453570E-10
-3.100000E+1	-2.488718E-10
-3.200000E+1	-2.491460E-10
-3.300000E+1	-2.359961E-10
-3.400000E+1	-2.550971E-10
-3.500000E+1	-2.653399E-10
-3.600000E+1	-2.746412E-10
-3.700000E+1	-2.892081E-10
-3.800000E+1	-2.724473E-10
-3.900000E+1	-2.698055E-10
-4.000000E+1	-2.721595E-10
-4.100000E+1	-2.820092E-10
-4.200000E+1	-2.929789E-10
-4.300000E+1	-2.932211E-10
-4.400000E+1	-2.944004E-10
-4.500000E+1	-2.946837E-10
-4.600000E+1	-2.857480E-10
-4.700000E+1	-2.851812E-10
-4.800000E+1	-2.920052E-10
-4.900000E+1	-2.949259E-10
-5.000000E+1	-2.926360E-10
-5.100000E+1	-3.105028E-10
-5.200000E+1	-2.955520E-10
-5.300000E+1	-2.996428E-10
-5.400000E+1	-2.981574E-10
-5.500000E+1	-2.856839E-10
-5.600000E+1	-2.987744E-10
-5.700000E+1	-3.026275E-10
-5.800000E+1	-3.052009E-10
-5.900000E+1	-2.985780E-10
-6.000000E+1	-2.831565E-10
-6.100000E+1	-2.922292E-10
-6.200000E+1	-2.958446E-10
-6.300000E+1	-3.001548E-10
-6.400000E+1	-3.020197E-10
-6.500000E+1	-2.962331E-10
-6.600000E+1	-2.945101E-10
-6.700000E+1	-2.839517E-10
-6.800000E+1	-2.693027E-10
-6.900000E+1	-2.681235E-10
-7.000000E+1	-2.614960E-10
-7.100000E+1	-2.576566E-10
-7.200000E+1	-2.596128E-10
-7.300000E+1	-2.550102E-10
-7.400000E+1	-2.597363E-10
-7.500000E+1	-2.581685E-10
-7.600000E+1	-2.526105E-10
-7.700000E+1	-2.499139E-10
-7.800000E+1	-2.632968E-10
-7.900000E+1	-2.686765E-10
-8.000000E+1	-2.557598E-10
-8.100000E+1	-2.634248E-10
-8.200000E+1	-2.672916E-10
-8.300000E+1	-2.766706E-10
-8.400000E+1	-2.676344E-10
-8.500000E+1	-2.667613E-10
-8.600000E+1	-2.766934E-10
-8.700000E+1	-2.740973E-10
-8.800000E+1	-2.722599E-10
-8.900000E+1	-2.641652E-10
-9.000000E+1	-2.719125E-10
-9.100000E+1	-2.991218E-10
-9.200000E+1	-2.894228E-10
-9.300000E+1	-2.837277E-10
-9.400000E+1	-2.825347E-10
-9.500000E+1	-2.928005E-10
-9.600000E+1	-2.956160E-10
-9.700000E+1	-3.067684E-10
-9.800000E+1	-3.081579E-10
-9.900000E+1	-3.054795E-10
-1.000000E+2	-3.178386E-10
-1.010000E+2	-3.098582E-10
-1.020000E+2	-3.206908E-10
-1.030000E+2	-3.154893E-10
-1.040000E+2	-3.171758E-10
-1.050000E+2	-3.295213E-10
-1.060000E+2	-3.379039E-10
-1.070000E+2	-3.418666E-10
-1.080000E+2	-3.474429E-10
-1.090000E+2	-3.474109E-10
-1.100000E+2	-3.675402E-10
-1.110000E+2	-3.694553E-10
-1.120000E+2	-3.704974E-10
-1.130000E+2	-3.767044E-10
-1.140000E+2	-3.915591E-10
-1.150000E+2	-3.996629E-10
-1.160000E+2	-4.105730E-10
-1.170000E+2	-4.287918E-10
-1.180000E+2	-4.348936E-10
-1.190000E+2	-4.406389E-10
-1.200000E+2	-4.523263E-10
-1.210000E+2	-4.821042E-10
-1.220000E+2	-4.919036E-10
-1.230000E+2	-5.032893E-10
-1.240000E+2	-5.183496E-10
END
