IV measurement
:Program Version
13.8.2003 Moll, 4.2008 Fahrer, 6.2011 Gabrysch
:Program Library
CVIV.llb
:start
28/05/2019 14:05:36
:stop
28/05/2019 14:08:01
:elapsed [s]
144.4
:gpib bus delay [ms]
50
:device
HPK-Type-4-LG1-SE5-W10
:tester
asoaresc
:environment
Probe Station (28-2-019)
:comment
<not set>
:annealing time [min]
<not set>
:material
p FZ
:temperature [C]
20.00
:ToolID
1102
:GuardRingConnection
1
:Region
0
:Fluence
0.00
:Particle
p KiT
:Resistivity[ohm cm]
0.0
:AnnealingHistory[C,min]

:Instruments
V source and I meter: Keithley 2410
- integration time [ms]: 60.0
- internal averaging: 3
- compliance [A or V]: 1.000E-6
:ramp up step [V], delay [s], down step [V], delay[s]
2.0, 1.0, 20.0, 0.5
:set voltage start [V], voltage stop [V], number of steps
-0.0, -90.0, 90
:measured voltage start [V], voltage stop [V], number of steps
-0.0, -87.0, 88
:step mode
linear
:legend
bias [V]	Current [A]
BEGIN
-0.000000E+0	-1.922124E-10
-1.000000E+0	-4.091124E-11
-2.000000E+0	-2.986407E-11
-3.000000E+0	-3.779866E-11
-4.000000E+0	-6.430816E-11
-5.000000E+0	-6.781399E-11
-6.000000E+0	-1.020263E-10
-7.000000E+0	-7.893488E-11
-8.000000E+0	-1.002569E-10
-9.000000E+0	-1.150111E-10
-1.000000E+1	-1.417731E-10
-1.100000E+1	-1.549280E-10
-1.200000E+1	-1.619122E-10
-1.300000E+1	-1.767126E-10
-1.400000E+1	-2.001290E-10
-1.500000E+1	-2.027755E-10
-1.600000E+1	-2.267495E-10
-1.700000E+1	-2.361472E-10
-1.800000E+1	-2.336377E-10
-1.900000E+1	-2.435107E-10
-2.000000E+1	-2.422035E-10
-2.100000E+1	-2.443654E-10
-2.200000E+1	-2.428479E-10
-2.300000E+1	-2.594446E-10
-2.400000E+1	-2.535848E-10
-2.500000E+1	-2.572964E-10
-2.600000E+1	-2.576895E-10
-2.700000E+1	-2.683166E-10
-2.800000E+1	-2.620043E-10
-2.900000E+1	-2.779473E-10
-3.000000E+1	-2.868331E-10
-3.100000E+1	-2.593212E-10
-3.200000E+1	-2.670824E-10
-3.300000E+1	-2.732347E-10
-3.400000E+1	-2.666985E-10
-3.500000E+1	-2.706339E-10
-3.600000E+1	-2.844698E-10
-3.700000E+1	-2.817729E-10
-3.800000E+1	-2.511530E-10
-3.900000E+1	-2.836973E-10
-4.000000E+1	-2.939039E-10
-4.100000E+1	-2.836607E-10
-4.200000E+1	-2.764936E-10
-4.300000E+1	-2.691026E-10
-4.400000E+1	-2.673519E-10
-4.500000E+1	-2.713743E-10
-4.600000E+1	-2.901192E-10
-4.700000E+1	-3.225311E-10
-4.800000E+1	-2.921897E-10
-4.900000E+1	-2.794966E-10
-5.000000E+1	-2.789984E-10
-5.100000E+1	-2.667485E-10
-5.200000E+1	-2.541742E-10
-5.300000E+1	-2.533880E-10
-5.400000E+1	-2.309223E-10
-5.500000E+1	-2.291763E-10
-5.600000E+1	-2.167803E-10
-5.700000E+1	-2.335735E-10
-5.800000E+1	-2.351641E-10
-5.900000E+1	-2.206974E-10
-6.000000E+1	-2.285821E-10
-6.100000E+1	-2.332992E-10
-6.200000E+1	-2.300996E-10
-6.300000E+1	-2.476379E-10
-6.400000E+1	-2.551386E-10
-6.500000E+1	-2.593117E-10
-6.600000E+1	-2.594077E-10
-6.700000E+1	-2.408410E-10
-6.800000E+1	-2.564686E-10
-6.900000E+1	-2.647738E-10
-7.000000E+1	-2.588089E-10
-7.100000E+1	-2.565966E-10
-7.200000E+1	-2.451512E-10
-7.300000E+1	-2.540872E-10
-7.400000E+1	-2.671460E-10
-7.500000E+1	-2.744365E-10
-7.600000E+1	-2.598372E-10
-7.700000E+1	-2.577072E-10
-7.800000E+1	-2.501334E-10
-7.900000E+1	-2.768087E-10
-8.000000E+1	-2.914079E-10
-8.100000E+1	-2.814298E-10
-8.200000E+1	-2.843870E-10
-8.300000E+1	-2.790758E-10
-8.400000E+1	-2.860920E-10
-8.500000E+1	-2.857491E-10
-8.600000E+1	-2.935835E-10
-8.700000E+1	-3.047500E-10
END
