IV measurement
:Program Version
13.8.2003 Moll, 4.2008 Fahrer, 6.2011 Gabrysch
:Program Library
CVIV.llb
:start
28/05/2019 14:23:15
:stop
28/05/2019 14:26:12
:elapsed [s]
177.0
:gpib bus delay [ms]
50
:device
HPK-Type-4-LG1-SE5-W10
:tester
asoaresc
:environment
Probe Station (28-2-019)
:comment
<not set>
:annealing time [min]
<not set>
:material
p FZ
:temperature [C]
20.00
:ToolID
1102
:GuardRingConnection
1
:Region
0
:Fluence
0.00
:Particle
p KiT
:Resistivity[ohm cm]
0.0
:AnnealingHistory[C,min]

:Instruments
V source and I meter: Keithley 2410
- integration time [ms]: 60.0
- internal averaging: 3
- compliance [A or V]: 1.000E-6
:ramp up step [V], delay [s], down step [V], delay[s]
2.0, 1.0, 20.0, 0.5
:set voltage start [V], voltage stop [V], number of steps
-0.0, -107.0, 107
:measured voltage start [V], voltage stop [V], number of steps
-0.0, -107.0, 108
:step mode
linear
:legend
bias [V]	Current [A]
BEGIN
-0.000000E+0	-1.782781E-10
-1.000000E+0	-3.545109E-11
-2.000000E+0	-5.440487E-11
-3.000000E+0	-5.430904E-11
-4.000000E+0	-7.214344E-11
-5.000000E+0	-6.932799E-11
-6.000000E+0	-8.334134E-11
-7.000000E+0	-8.345569E-11
-8.000000E+0	-9.275675E-11
-9.000000E+0	-1.073367E-10
-1.000000E+1	-1.140967E-10
-1.100000E+1	-1.239740E-10
-1.200000E+1	-1.414019E-10
-1.300000E+1	-1.626737E-10
-1.400000E+1	-1.679757E-10
-1.500000E+1	-1.654390E-10
-1.600000E+1	-1.734149E-10
-1.700000E+1	-1.914234E-10
-1.800000E+1	-2.023429E-10
-1.900000E+1	-2.089658E-10
-2.000000E+1	-2.116443E-10
-2.100000E+1	-2.277881E-10
-2.200000E+1	-2.425149E-10
-2.300000E+1	-2.431776E-10
-2.400000E+1	-2.384241E-10
-2.500000E+1	-2.375191E-10
-2.600000E+1	-2.458515E-10
-2.700000E+1	-2.481734E-10
-2.800000E+1	-2.524836E-10
-2.900000E+1	-2.600938E-10
-3.000000E+1	-2.578541E-10
-3.100000E+1	-2.720919E-10
-3.200000E+1	-2.851459E-10
-3.300000E+1	-2.856166E-10
-3.400000E+1	-2.734448E-10
-3.500000E+1	-2.807946E-10
-3.600000E+1	-2.850269E-10
-3.700000E+1	-2.790942E-10
-3.800000E+1	-2.750034E-10
-3.900000E+1	-2.771608E-10
-4.000000E+1	-2.936107E-10
-4.100000E+1	-2.777047E-10
-4.200000E+1	-2.775402E-10
-4.300000E+1	-2.796564E-10
-4.400000E+1	-2.788885E-10
-4.500000E+1	-2.771059E-10
-4.600000E+1	-2.738881E-10
-4.700000E+1	-2.806436E-10
-4.800000E+1	-2.857810E-10
-4.900000E+1	-2.975415E-10
-5.000000E+1	-2.929753E-10
-5.100000E+1	-2.881669E-10
-5.200000E+1	-3.026515E-10
-5.300000E+1	-2.912933E-10
-5.400000E+1	-3.003845E-10
-5.500000E+1	-2.810320E-10
-5.600000E+1	-2.809086E-10
-5.700000E+1	-2.871202E-10
-5.800000E+1	-2.861558E-10
-5.900000E+1	-2.809819E-10
-6.000000E+1	-2.632018E-10
-6.100000E+1	-2.691118E-10
-6.200000E+1	-2.619266E-10
-6.300000E+1	-2.516745E-10
-6.400000E+1	-2.608113E-10
-6.500000E+1	-2.611175E-10
-6.600000E+1	-2.419480E-10
-6.700000E+1	-2.544534E-10
-6.800000E+1	-2.653729E-10
-6.900000E+1	-2.795421E-10
-7.000000E+1	-2.687049E-10
-7.100000E+1	-2.673337E-10
-7.200000E+1	-2.714382E-10
-7.300000E+1	-2.576072E-10
-7.400000E+1	-2.718267E-10
-7.500000E+1	-2.745234E-10
-7.600000E+1	-2.685678E-10
-7.700000E+1	-2.684717E-10
-7.800000E+1	-2.545860E-10
-7.900000E+1	-2.647786E-10
-8.000000E+1	-2.660676E-10
-8.100000E+1	-2.710359E-10
-8.200000E+1	-2.806024E-10
-8.300000E+1	-2.832945E-10
-8.400000E+1	-2.855250E-10
-8.500000E+1	-2.774303E-10
-8.600000E+1	-2.832762E-10
-8.700000E+1	-2.924542E-10
-8.800000E+1	-2.958137E-10
-8.900000E+1	-2.979939E-10
-9.000000E+1	-2.852691E-10
-9.100000E+1	-2.961519E-10
-9.200000E+1	-3.044020E-10
-9.300000E+1	-3.031085E-10
-9.400000E+1	-2.985287E-10
-9.500000E+1	-3.140965E-10
-9.600000E+1	-3.238458E-10
-9.700000E+1	-3.347835E-10
-9.800000E+1	-3.345412E-10
-9.900000E+1	-3.383532E-10
-1.000000E+2	-3.556624E-10
-1.010000E+2	-3.580301E-10
-1.020000E+2	-3.666458E-10
-1.030000E+2	-3.604433E-10
-1.040000E+2	-3.719661E-10
-1.050000E+2	-3.941112E-10
-1.060000E+2	-4.118729E-10
-1.070000E+2	-4.223352E-10
END
