IV measurement
:Program Version
13.8.2003 Moll, 4.2008 Fahrer, 6.2011 Gabrysch
:Program Library
CVIV.llb
:start
27/05/2019 11:00:39
:stop
27/05/2019 11:04:42
:elapsed [s]
242.8
:gpib bus delay [ms]
50
:device
HPK-Type-1.1-LG1-SE2-1
:tester
<not set>
:environment
Probe Station (28-2-019)
:comment
<not set>
:annealing time [min]
<not set>
:material
p FZ
:temperature [C]
20.00
:ToolID
1102
:GuardRingConnection
2
:Region
0
:Fluence
0.00
:Particle
p KiT
:Resistivity[ohm cm]
0.0
:AnnealingHistory[C,min]

:Instruments
V source and I meter: Keithley 2410
- integration time [ms]: 100.0
- internal averaging: 3
- compliance [A or V]: 1.000E-5
:ramp up step [V], delay [s], down step [V], delay[s]
2.0, 1.0, 20.0, 0.5
:set voltage start [V], voltage stop [V], number of steps
-0.0, -240.0, 120
:measured voltage start [V], voltage stop [V], number of steps
-0.0, -240.0, 121
:step mode
linear
:legend
bias [V]	Current [A]
BEGIN
-0.000000E+0	-1.560402E-10
-2.000000E+0	-1.192778E-10
-4.000000E+0	-1.842517E-10
-6.000000E+0	-2.601407E-10
-8.000000E+0	-3.146742E-10
-1.000000E+1	-3.673511E-10
-1.200000E+1	-3.752026E-10
-1.400000E+1	-3.769112E-10
-1.600000E+1	-4.005154E-10
-1.800000E+1	-4.343489E-10
-2.000000E+1	-4.545827E-10
-2.200000E+1	-4.631008E-10
-2.400000E+1	-4.635807E-10
-2.600000E+1	-4.521336E-10
-2.800000E+1	-4.480639E-10
-3.000000E+1	-4.699678E-10
-3.200000E+1	-4.850650E-10
-3.400000E+1	-4.809238E-10
-3.600000E+1	-4.853447E-10
-3.800000E+1	-4.801367E-10
-4.000000E+1	-4.782307E-10
-4.200000E+1	-4.436951E-10
-4.400000E+1	-4.541081E-10
-4.600000E+1	-4.441119E-10
-4.800000E+1	-4.400092E-10
-5.000000E+1	-4.337646E-10
-5.200000E+1	-4.589101E-10
-5.400000E+1	-4.621680E-10
-5.600000E+1	-4.822153E-10
-5.800000E+1	-4.516343E-10
-6.000000E+1	-4.512286E-10
-6.200000E+1	-5.090421E-10
-6.400000E+1	-4.512341E-10
-6.600000E+1	-4.694357E-10
-6.800000E+1	-4.634133E-10
-7.000000E+1	-4.611124E-10
-7.200000E+1	-4.555506E-10
-7.400000E+1	-4.475646E-10
-7.600000E+1	-4.711441E-10
-7.800000E+1	-4.605967E-10
-8.000000E+1	-4.852759E-10
-8.200000E+1	-5.038094E-10
-8.400000E+1	-4.796759E-10
-8.600000E+1	-4.566668E-10
-8.800000E+1	-4.730611E-10
-9.000000E+1	-4.756060E-10
-9.200000E+1	-4.821714E-10
-9.400000E+1	-5.035186E-10
-9.600000E+1	-4.989305E-10
-9.800000E+1	-4.673979E-10
-1.000000E+2	-4.790971E-10
-1.020000E+2	-5.001014E-10
-1.040000E+2	-5.307811E-10
-1.060000E+2	-4.960372E-10
-1.080000E+2	-4.752851E-10
-1.100000E+2	-4.872366E-10
-1.120000E+2	-5.139837E-10
-1.140000E+2	-5.181878E-10
-1.160000E+2	-5.193232E-10
-1.180000E+2	-5.306603E-10
-1.200000E+2	-5.297745E-10
-1.220000E+2	-5.192984E-10
-1.240000E+2	-5.033594E-10
-1.260000E+2	-5.392880E-10
-1.280000E+2	-5.465611E-10
-1.300000E+2	-5.389673E-10
-1.320000E+2	-5.224056E-10
-1.340000E+2	-5.407388E-10
-1.360000E+2	-5.134076E-10
-1.380000E+2	-5.180534E-10
-1.400000E+2	-5.191311E-10
-1.420000E+2	-5.263931E-10
-1.440000E+2	-5.688433E-10
-1.460000E+2	-5.669948E-10
-1.480000E+2	-5.621846E-10
-1.500000E+2	-5.549088E-10
-1.520000E+2	-5.613398E-10
-1.540000E+2	-5.647103E-10
-1.560000E+2	-5.624697E-10
-1.580000E+2	-5.624642E-10
-1.600000E+2	-5.690351E-10
-1.620000E+2	-5.795112E-10
-1.640000E+2	-5.705325E-10
-1.660000E+2	-5.855967E-10
-1.680000E+2	-5.741086E-10
-1.700000E+2	-5.877549E-10
-1.720000E+2	-5.892496E-10
-1.740000E+2	-5.996462E-10
-1.760000E+2	-6.058468E-10
-1.780000E+2	-6.014424E-10
-1.800000E+2	-6.127550E-10
-1.820000E+2	-6.280413E-10
-1.840000E+2	-6.259926E-10
-1.860000E+2	-6.277012E-10
-1.880000E+2	-6.402204E-10
-1.900000E+2	-6.455078E-10
-1.920000E+2	-6.384103E-10
-1.940000E+2	-6.467226E-10
-1.960000E+2	-6.551694E-10
-1.980000E+2	-6.761188E-10
-2.000000E+2	-6.828186E-10
-2.020000E+2	-6.925953E-10
-2.040000E+2	-7.061923E-10
-2.060000E+2	-7.208231E-10
-2.080000E+2	-7.397186E-10
-2.100000E+2	-7.616114E-10
-2.120000E+2	-7.710811E-10
-2.140000E+2	-7.793440E-10
-2.160000E+2	-7.849249E-10
-2.180000E+2	-8.132048E-10
-2.200000E+2	-8.523531E-10
-2.220000E+2	-8.798324E-10
-2.240000E+2	-9.291194E-10
-2.260000E+2	-1.033787E-9
-2.280000E+2	-1.078058E-9
-2.300000E+2	-1.208154E-9
-2.320000E+2	-1.524176E-9
-2.340000E+2	-2.121076E-9
-2.360000E+2	-2.835302E-9
-2.380000E+2	-3.005690E-9
-2.400000E+2	-3.344619E-9
END
