IV measurement
:Program Version
13.8.2003 Moll, 4.2008 Fahrer, 6.2011 Gabrysch
:Program Library
CVIV.llb
:start
05/06/2019 10:30:15
:stop
05/06/2019 10:33:21
:elapsed [s]
185.2
:gpib bus delay [ms]
50
:device
HPK-Type-1.1-LG1-SE2-1
:tester
asoaresc
:environment
Probe Station (28-2-019)
:comment
needle on pad config, remeasure check before grounding guard ring
:annealing time [min]
<not set>
:material
p FZ
:temperature [C]
20.00
:ToolID
1102
:GuardRingConnection
1
:Region
0
:Fluence
0.00
:Particle
p KiT
:Resistivity[ohm cm]
0.0
:AnnealingHistory[C,min]

:Instruments
V source and I meter: Keithley 2410
- integration time [ms]: 60.0
- internal averaging: 3
- compliance [A or V]: 1.000E-6
:ramp up step [V], delay [s], down step [V], delay[s]
2.0, 1.0, 20.0, 0.5
:set voltage start [V], voltage stop [V], number of steps
-0.0, -224.0, 112
:measured voltage start [V], voltage stop [V], number of steps
-0.0, -224.0, 113
:step mode
linear
:legend
bias [V]	Current [A]
BEGIN
-0.000000E+0	-2.717820E-10
-2.000000E+0	1.358438E-11
-4.000000E+0	-2.396396E-11
-6.000000E+0	-8.837498E-11
-8.000000E+0	-1.393942E-10
-1.000000E+1	-2.052178E-10
-1.200000E+1	-2.029232E-10
-1.400000E+1	-2.488044E-10
-1.600000E+1	-2.761519E-10
-1.800000E+1	-2.648484E-10
-2.000000E+1	-2.791822E-10
-2.200000E+1	-2.864178E-10
-2.400000E+1	-3.240039E-10
-2.600000E+1	-2.923555E-10
-2.800000E+1	-3.002172E-10
-3.000000E+1	-2.848457E-10
-3.200000E+1	-3.205346E-10
-3.400000E+1	-3.244153E-10
-3.600000E+1	-3.903406E-10
-3.800000E+1	-3.367199E-10
-4.000000E+1	-2.966564E-10
-4.200000E+1	-2.578780E-10
-4.400000E+1	-2.919804E-10
-4.600000E+1	-3.011908E-10
-4.800000E+1	-2.863544E-10
-5.000000E+1	-2.794108E-10
-5.200000E+1	-2.836797E-10
-5.400000E+1	-2.989508E-10
-5.600000E+1	-3.098797E-10
-5.800000E+1	-3.244745E-10
-6.000000E+1	-3.035678E-10
-6.200000E+1	-3.053501E-10
-6.400000E+1	-3.274958E-10
-6.600000E+1	-3.424836E-10
-6.800000E+1	-3.460626E-10
-7.000000E+1	-3.471916E-10
-7.200000E+1	-3.435989E-10
-7.400000E+1	-3.446090E-10
-7.600000E+1	-3.508573E-10
-7.800000E+1	-3.320529E-10
-8.000000E+1	-3.428629E-10
-8.200000E+1	-3.492757E-10
-8.400000E+1	-3.431324E-10
-8.600000E+1	-3.605108E-10
-8.800000E+1	-3.466612E-10
-9.000000E+1	-3.443894E-10
-9.200000E+1	-3.395672E-10
-9.400000E+1	-3.564108E-10
-9.600000E+1	-3.690536E-10
-9.800000E+1	-3.660552E-10
-1.000000E+2	-3.655386E-10
-1.020000E+2	-3.470404E-10
-1.040000E+2	-3.443162E-10
-1.060000E+2	-3.576356E-10
-1.080000E+2	-3.827158E-10
-1.100000E+2	-3.688205E-10
-1.120000E+2	-3.575853E-10
-1.140000E+2	-3.693187E-10
-1.160000E+2	-3.853075E-10
-1.180000E+2	-3.946960E-10
-1.200000E+2	-3.912221E-10
-1.220000E+2	-4.025486E-10
-1.240000E+2	-3.826289E-10
-1.260000E+2	-3.748127E-10
-1.280000E+2	-3.923236E-10
-1.300000E+2	-4.214765E-10
-1.320000E+2	-4.129380E-10
-1.340000E+2	-4.027999E-10
-1.360000E+2	-3.943072E-10
-1.380000E+2	-4.053367E-10
-1.400000E+2	-4.048248E-10
-1.420000E+2	-4.127505E-10
-1.440000E+2	-4.210328E-10
-1.460000E+2	-4.187839E-10
-1.480000E+2	-4.084676E-10
-1.500000E+2	-4.129790E-10
-1.520000E+2	-4.177829E-10
-1.540000E+2	-4.183359E-10
-1.560000E+2	-4.598071E-10
-1.580000E+2	-4.195837E-10
-1.600000E+2	-4.351428E-10
-1.620000E+2	-4.413271E-10
-1.640000E+2	-4.621746E-10
-1.660000E+2	-4.791188E-10
-1.680000E+2	-4.835203E-10
-1.700000E+2	-4.700045E-10
-1.720000E+2	-4.848003E-10
-1.740000E+2	-4.624032E-10
-1.760000E+2	-5.027910E-10
-1.780000E+2	-5.108036E-10
-1.800000E+2	-5.124903E-10
-1.820000E+2	-5.147527E-10
-1.840000E+2	-5.527774E-10
-1.860000E+2	-5.632812E-10
-1.880000E+2	-5.574488E-10
-1.900000E+2	-5.819485E-10
-1.920000E+2	-6.171027E-10
-1.940000E+2	-6.466896E-10
-1.960000E+2	-6.523573E-10
-1.980000E+2	-7.019372E-10
-2.000000E+2	-7.350527E-10
-2.020000E+2	-8.221407E-10
-2.040000E+2	-8.736677E-10
-2.060000E+2	-9.774667E-10
-2.080000E+2	-1.162073E-9
-2.100000E+2	-1.367125E-9
-2.120000E+2	-1.696892E-9
-2.140000E+2	-2.105500E-9
-2.160000E+2	-2.521743E-9
-2.180000E+2	-2.907488E-9
-2.200000E+2	-3.292887E-9
-2.220000E+2	-3.830860E-9
-2.240000E+2	-4.440186E-9
END
